Wavenumber
1251.596
1253.524
1255.453
1257.381
1259.31
1261.238
1263.167
1265.095
1267.024
1268.952
1270.88
1272.809
1274.738
1276.666
1278.594
1280.523
1282.452
1284.38
1286.308
1288.237
1290.166
1292.094
1294.022
1295.951
1297.88
1299.808
1301.736
1303.665
1305.594
1307.522
1309.45
1311.379
1313.307
1315.236
1317.164
1319.093
1321.021
1322.95
1324.878
1326.807
1328.735
1330.664
1332.592
1334.521
1336.449
1338.378
1340.307
1342.235
1344.163
1346.092
1348.021
1349.949
1351.877
1353.806
1355.734
1357.663
1359.591
1361.52
1363.448
1365.377
1367.305
1369.234
1371.162
1373.091
1375.019
1376.948
1378.876
1380.805
1382.733
1384.662
1386.59
1388.519
1390.447
1392.376
1394.304
1396.233
1398.161
1400.09
1402.018
1403.947
1405.875
1407.804
1409.732
1411.661
1413.589
1415.518
1417.446
1419.375
1421.303
1423.232
1425.16
1427.089
1429.017
1430.946
1432.874
1434.803
1436.731
1438.66
1440.588
1442.517
1444.445
1446.374
1448.302
1450.231
1452.159
1454.088
1456.016
1457.945
1459.873
1461.802
1463.73
1465.659
1467.587
1469.516
1471.444
1473.373
1475.301
1477.23
1479.158
1481.087
1483.015
1484.944
1486.872
1488.801
1490.729
1492.658
1494.586
1496.515
1498.443
1500.372
1502.3
1504.229
1506.157
1508.086
1510.014
1511.943
1513.871
1515.8
1517.728
1519.657
1521.585
1523.514
1525.442
1527.371
1529.299
1531.228
1533.156
1535.085
1537.013
1538.942
1540.87
1542.799
1544.727
1546.656
1548.584
1550.513
1552.441
1554.37
1556.298
1558.227
1560.155
1562.084
1564.012
1565.941
1567.869
1569.798
1571.726
1573.655
1575.583
1577.512
1579.44
1581.369
1583.297
1585.226
1587.154
1589.083
1591.011
1592.94
1594.868
1596.797
1598.725
1600.654
1602.582
1604.511
1606.439
1608.368
1610.296
1612.225
1614.153
1616.082
1618.01
1619.939
1621.867
1623.796
1625.724
1627.653
1629.581
1631.51
1633.438
1635.367
1637.295
1639.224
1641.152
1643.081
1645.009
1646.938
1648.866
1650.795
1652.723
1654.652
1656.58
1658.509
1660.437
1662.366
1664.294
1666.223
1668.151
1670.08
1672.008
1673.937
1675.865
1677.794
1679.722
1681.651
1683.579
1685.508
1687.436
1689.365
1691.293
1693.222
1695.15
1697.079
1699.007
1700.936
1702.864
1704.793
1706.721
1708.65
1710.578
1712.507
1714.435
1716.364
1718.292
1720.221
1722.149
1724.078
1726.006
1727.935
1729.863
1731.792
1733.72
1735.649
1737.577
1739.506
1741.434
1743.363
1745.291
1747.22
1749.148
1751.077
1753.005
1754.934
1756.862
1758.791
1760.719
1762.648
1764.576
1766.505
1768.433
1770.362
1772.29
1774.219
1776.147
1778.076
1780.004
1781.933
1783.861
1785.79
1787.718
1789.647
1791.575
1793.504
1795.432
1797.361
1799.289
1801.218
1803.146
1805.075
1807.003
1808.932
1810.86
1812.789
1814.717
1816.646
1818.574
1820.503
1822.431
1824.36
1826.288
1828.217
1830.145
1832.074
1834.002
1835.931
1837.859
1839.788
1841.716
1843.645
1845.573
1847.502
1849.43
1851.359
1853.287
1855.216
1857.144
1859.073
1861.001
1862.93
1864.858
1866.786
1868.715
1870.644
1872.572
1874.5
1876.429
1878.358
1880.286
1882.215
1884.143
1886.072
1888
1889.929
1891.857
1893.786
1895.714
1897.643
1899.571
1901.5
1903.428
1905.357
1907.285
1909.214
1911.142
1913.071
1914.999
1916.927
1918.856
1920.785
1922.713
1924.641
1926.57
1928.499
1930.427
1932.355
1934.284
1936.213
1938.141
1940.069
1941.998
1943.927
1945.855
1947.783
1949.712
1951.641
1953.569
1955.497
1957.426
1959.354
1961.283
1963.211
1965.14
1967.068
1968.997
1970.925
1972.854
1974.782
1976.711
1978.639
1980.568
1982.496
1984.425
1986.354
1988.282
1990.21
1992.139
1994.068
1995.996
1997.924
1999.853
2001.781
2003.71
2005.638
2007.567
2009.495
2011.424
2013.352
2015.281
2017.209
2019.138
2021.066
2022.995
2024.923
2026.852
2028.78
2030.709
2032.637
2034.566
2036.494
2038.423
2040.351
2042.28
2044.208
2046.137
2048.065
2049.994
2051.922
2053.851
2055.779
2057.708
2059.636
2061.565
2063.493
2065.422
2067.35
2069.279
2071.207
2073.136
2075.064
2076.993
2078.921
2080.85
2082.778
2084.707
2086.635
2088.564
2090.492
2092.421
2094.349
2096.278
2098.206
2100.135
2102.063
2103.992
2105.92
2107.849
2109.777
2111.706
2113.634
2115.563
2117.491
2119.42
2121.348
2123.277
2125.205
2127.134
2129.062
2130.991
2132.919
2134.848
2136.776
2138.705
2140.633
2142.562
2144.49
2146.419
2148.347
2150.276
2152.204
2154.133
2156.061
2157.99
2159.918
2161.847
2163.775
2165.704
2167.632
2169.561
2171.489
2173.418
2175.346
2177.275
2179.203
2181.132
2183.06
2184.989
2186.917
2188.846
2190.774
2192.703
2194.631
2196.56
2198.488
2200.417
2202.345
2204.274
2206.202
2208.131
2210.059
2211.988
2213.916
2215.845
2217.773
2219.702
2221.63
2223.559
2225.487
2227.416
2229.344
2231.273
2233.201
2235.13
2237.058
2238.987
2240.915
2242.844
2244.772
2246.701
2248.629
2250.558
2252.486
2254.415
2256.343
2258.272
2260.2
2262.129
2264.057
2265.986
2267.914
2269.843
2271.771
2273.7
2275.628
2277.557
2279.485
2281.414
2283.342
2285.271
2287.199
2289.128
2291.056
2292.985
2294.913
2296.842
2298.77
2300.699
2302.627
2304.556
2306.484
2308.413
2310.341
2312.27
2314.198
2316.127
2318.055
2319.984
2321.912
2323.841
2325.769
2327.698
2329.626
2331.555
2333.483
2335.412
2337.34
2339.269
2341.197
2343.126
2345.054
2346.983
2348.911
2350.84
2352.768
2354.697
2356.625
2358.554
2360.482
2362.411
2364.339
2366.268
2368.196
2370.125
2372.053
2373.982
2375.91
2377.839
2379.767
2381.696
2383.624
2385.553
2387.481
2389.41
2391.338
2393.267
2395.195
2397.124
2399.052